  STEP   TOTAL TIME             LOCATION OF OBSERVATION POINTS (K,I,J)
                      7   8   3     5   8   5     5   9   5     5  10   5
     1    3.5000       0.57868       5.77686E-05   1.01726E-05   1.09434E-06
     2    7.0000       0.93270       3.26014E-04   6.50285E-05   7.81049E-06
     3    10.500        1.1629       1.02144E-03   2.26320E-04   2.99957E-05
     4    14.000        1.3204       2.31018E-03   5.64390E-04   8.21286E-05
     5    17.500        1.4328       4.25542E-03   1.13807E-03   1.80839E-04
     6    21.000        1.5160       6.82956E-03   1.98389E-03   3.42158E-04
     7    24.500        1.5793       9.94882E-03   3.12368E-03   5.84110E-04
     8    28.000        1.6287       1.35040E-02   4.56056E-03   9.11671E-04
     9    31.500        1.6679       1.75417E-02   6.25409E-03   1.33071E-03
    10    35.000        1.6997       2.16988E-02   8.16374E-03   1.84200E-03
    11    38.500        1.7258       2.59486E-02   1.02535E-02   2.44285E-03
    12    42.000        1.7475       3.02420E-02   1.24875E-02   3.12820E-03
    13    45.500        1.7657       3.45196E-02   1.48302E-02   3.89107E-03
    14    49.000        1.7812       3.87269E-02   1.72465E-02   4.72275E-03
    15    52.500        1.7944       4.28301E-02   1.97044E-02   5.59744E-03
    16    56.000        1.8058       4.68421E-02   2.21815E-02   6.53393E-03
    17    59.500        1.8156       5.07049E-02   2.46085E-02   7.52580E-03
    18    63.000        1.8242       5.43961E-02   2.70033E-02   8.55976E-03
    19    66.500        1.8317       5.79204E-02   2.94287E-02   9.61777E-03
    20    70.000        1.8383       6.12835E-02   3.18464E-02   1.06954E-02
    21    73.500        1.8441       6.44890E-02   3.42260E-02   1.17856E-02
    22    77.000        1.8493       6.74287E-02   3.65160E-02   1.28790E-02
    23    80.500        1.8539       7.01818E-02   3.87229E-02   1.39689E-02
    24    84.000        1.8580       7.29245E-02   4.08406E-02   1.50496E-02
    25    87.500        1.8616       7.56030E-02   4.28816E-02   1.61107E-02
    26    91.000        1.8649       7.81890E-02   4.48487E-02   1.71417E-02
    27    94.500        1.8679       8.06682E-02   4.67406E-02   1.81408E-02
    28    98.000        1.8706       8.30331E-02   4.85557E-02   1.91069E-02
    29    100.00        1.8755       8.43307E-02   4.95754E-02   1.96488E-02
