  STEP   TOTAL TIME             LOCATION OF OBSERVATION POINTS (K,I,J)
                      1   1   1     1   1  11     1   1  21     1   1  41     1   1  81
     1    50.000        1.0000       2.43420E-08   2.02192E-16   1.39501E-32    0.0000    
     2    100.00        1.0000       4.97781E-07   8.81042E-15   1.25306E-30    0.0000    
     3    150.00        1.0000       4.43205E-06   1.78706E-13   5.42897E-29    0.0000    
     4    200.00        1.0000       2.34406E-05   2.25583E-12   1.51324E-27    0.0000    
     5    250.00        1.0000       8.57088E-05   2.00207E-11   3.05445E-26    0.0000    
     6    300.00        1.0000       2.39498E-04   1.34023E-10   4.76570E-25    0.0000    
     7    350.00        1.0000       5.48460E-04   7.09893E-10   5.99246E-24    0.0000    
     8    400.00        1.0000       1.08074E-03   3.08454E-09   6.25269E-23    0.0000    
     9    450.00        1.0000       1.89653E-03   1.13169E-08   5.53364E-22    0.0000    
    10    500.00        1.0000       3.03811E-03   3.59072E-08   4.22564E-21    0.0000    
    11    550.00        1.0000       4.52436E-03   1.00518E-07   2.82352E-20    0.0000    
    12    600.00        1.0000       6.34996E-03   2.52481E-07   1.67039E-19    0.0000    
    13    650.00        1.0000       8.48818E-03   5.77189E-07   8.83823E-19    0.0000    
    14    700.00        1.0000       1.08958E-02   1.21541E-06   4.21978E-18    0.0000    
    15    750.00        1.0000       1.35189E-02   2.38156E-06   1.83240E-17   4.20390E-45
    16    800.00        1.0000       1.62983E-02   4.38007E-06   7.28848E-17   6.30584E-44
    17    850.00        1.0000       1.91746E-02   7.61682E-06   2.67261E-16   5.71730E-43
    18    900.00        1.0000       2.20914E-02   1.26030E-05   9.08787E-16   4.78123E-42
    19    950.00        1.0000       2.49980E-02   1.99494E-05   2.88100E-15   3.65347E-41
    20    1000.0        1.0000       2.78510E-02   3.03509E-05   8.55689E-15   2.60239E-40
    21    1050.0        1.0000       3.06149E-02   4.45614E-05   2.39189E-14   1.73660E-39
    22    1100.0        1.0000       3.32615E-02   6.33617E-05   6.31861E-14   1.08901E-38
    23    1150.0        1.0000       3.57706E-02   8.75226E-05   1.58349E-13   6.43498E-38
    24    1200.0        1.0000       3.81280E-02   1.17766E-04   3.77793E-13   3.59207E-37
    25    1250.0        1.0000       4.03255E-02   1.54730E-04   8.60874E-13   1.89865E-36
    26    1300.0        1.0000       4.23597E-02   1.98933E-04   1.87919E-12   9.52363E-36
    27    1350.0        1.0000       4.42311E-02   2.50750E-04   3.94040E-12   4.54278E-35
    28    1400.0        1.0000       4.59430E-02   3.10397E-04   7.95705E-12   2.06468E-34
    29    1450.0        1.0000       4.75014E-02   3.77914E-04   1.55103E-11   8.95780E-34
    30    1500.0        1.0000       4.89136E-02   4.53173E-04   2.92474E-11   3.71649E-33
    31    1550.0        1.0000       5.01882E-02   5.35878E-04   5.34586E-11   1.47698E-32
    32    1600.0        1.0000       5.13346E-02   6.25581E-04   9.48888E-11   5.63143E-32
    33    1650.0        1.0000       5.23621E-02   7.21698E-04   1.63841E-10   2.06313E-31
    34    1700.0        1.0000       5.32805E-02   8.23537E-04   2.75633E-10   7.27328E-31
    35    1750.0        1.0000       5.40991E-02   9.30315E-04   4.52457E-10   2.47077E-30
    36    1800.0        1.0000       5.48269E-02   1.04119E-03   7.25699E-10   8.09862E-30
    37    1850.0        1.0000       5.54727E-02   1.15528E-03   1.13872E-09   2.56459E-29
    38    1900.0        1.0000       5.60445E-02   1.27169E-03   1.75016E-09   7.85568E-29
    39    1950.0        1.0000       5.65498E-02   1.38955E-03   2.63764E-09   2.33032E-28
    40    2000.0        1.0000       5.69956E-02   1.50797E-03   3.90188E-09   6.70195E-28
