  STEP   TOTAL TIME             LOCATION OF OBSERVATION POINTS (K,I,J)
                      1  16  16     1  16  21     1   5  16     1  27  16
     1    14.231        23.742       1.69254E-02   2.01200E-04   2.01188E-04
     2    25.000        32.207       7.07417E-02   8.13263E-04   8.13211E-04
     3    39.231        38.350       0.30583       3.98971E-03   3.98943E-03
     4    50.000        41.588       0.68829       9.02811E-03   9.02744E-03
     5    64.231        44.174        1.5713       2.27270E-02   2.27252E-02
     6    75.000        45.909        2.5369       3.77959E-02   3.77928E-02
     7    89.231        47.192        4.0887       6.60719E-02   6.60660E-02
     8    100.00        48.287        5.4050       9.09034E-02   9.08951E-02
     9    114.23        48.956        7.1804       0.12867       0.12866    
    10    125.00        49.734        8.5079       0.15838       0.15836    
    11    139.23        50.078        10.171       0.19850       0.19848    
    12    150.00        50.679        11.341       0.22866       0.22863    
    13    164.23        50.833        12.762       0.26638       0.26635    
    14    175.00        51.325        13.729       0.29445       0.29441    
    15    189.23        51.357        14.891       0.32752       0.32748    
    16    200.00        51.778        15.667       0.35241       0.35237    
    17    214.23        51.728        16.598       0.38018       0.38014    
    18    225.00        52.100        17.211       0.40170       0.40166    
    19    239.23        51.992        17.949       0.42442       0.42436    
    20    250.00        52.330        18.429       0.44282       0.44276    
    21    264.23        52.184        19.011       0.46104       0.46098    
    22    275.00        52.499        19.386       0.47670       0.47663    
    23    289.23        52.326        19.845       0.49106       0.49099    
    24    300.00        52.626        20.136       0.50437       0.50430    
    25    314.23        52.434        20.496       0.51547       0.51540    
    26    325.00        52.721        20.721       0.52681       0.52674    
    27    339.23        52.515        21.004       0.53522       0.53515    
    28    350.00        52.794        21.177       0.54493       0.54485    
    29    364.23        52.577        21.400       0.55113       0.55106    
    30    365.00        52.732        21.406       0.55314       0.55307    
