  STEP   TOTAL TIME             LOCATION OF OBSERVATION POINTS (K,I,J)
                      7   8   3     5   8   5     5   9   5     5  10   5
     1    4.0000       0.55798       2.01513E-04   5.65259E-05   9.85895E-06
     2    8.0000       0.84835       1.01049E-03   3.18316E-04   6.18279E-05
     3    10.000       0.94976       1.72931E-03   5.56101E-04   1.09836E-04
     4    14.000        1.0745       4.11624E-03   1.47324E-03   3.23822E-04
     5    18.000        1.1550       7.56010E-03   2.96642E-03   7.16903E-04
     6    20.000        1.1890       9.61324E-03   3.90314E-03   9.75280E-04
     7    24.000        1.2330       1.42260E-02   6.23531E-03   1.69955E-03
     8    28.000        1.2660       1.92739E-02   9.08128E-03   2.65874E-03
     9    30.000        1.2828       2.19175E-02   1.06219E-02   3.20386E-03
    10    34.000        1.3032       2.73966E-02   1.38981E-02   4.46244E-03
    11    38.000        1.3203       3.27392E-02   1.73524E-02   5.88813E-03
    12    40.000        1.3310       3.54076E-02   1.91311E-02   6.64588E-03
    13    44.000        1.3420       4.04604E-02   2.26660E-02   8.25816E-03
    14    48.000        1.3523       4.53112E-02   2.61795E-02   9.95260E-03
    15    50.000        1.3601       4.77133E-02   2.79384E-02   1.08186E-02
    16    54.000        1.3666       5.21905E-02   3.13419E-02   1.25853E-02
    17    58.000        1.3732       5.64083E-02   3.46298E-02   1.43483E-02
    18    60.000        1.3796       5.84726E-02   3.62476E-02   1.52180E-02
    19    64.000        1.3834       6.22945E-02   3.93335E-02   1.69957E-02
    20    68.000        1.3880       6.58707E-02   4.22715E-02   1.87740E-02
    21    70.000        1.3934       6.76154E-02   4.36754E-02   1.96565E-02
    22    74.000        1.3957       7.08327E-02   4.62793E-02   2.13707E-02
    23    78.000        1.3988       7.38446E-02   4.88456E-02   2.30361E-02
    24    80.000        1.4037       7.53168E-02   5.01142E-02   2.38571E-02
    25    84.000        1.4048       7.80443E-02   5.25412E-02   2.54488E-02
    26    88.000        1.4070       8.05922E-02   5.48472E-02   2.69847E-02
    27    90.000        1.4115       8.18368E-02   5.59738E-02   2.77405E-02
    28    94.000        1.4118       8.41383E-02   5.80755E-02   2.91821E-02
    29    98.000        1.4133       8.62805E-02   6.00300E-02   3.05585E-02
    30    100.00        1.4174       8.73275E-02   6.09843E-02   3.12367E-02
