  STEP   TOTAL TIME             LOCATION OF OBSERVATION POINTS (K,I,J)
                      7   8   3     5   8   5     5   9   5     5  10   5
     1    4.0000       0.62438       1.01926E-04   2.06767E-05   2.57501E-06
     2    8.0000       0.98264       5.56358E-04   1.27440E-04   1.76973E-05
     3    10.000        1.1141       9.81129E-04   2.28788E-04   3.22103E-05
     4    14.000        1.2885       2.52577E-03   6.60221E-04   1.03690E-04
     5    18.000        1.4072       4.95243E-03   1.43137E-03   2.48055E-04
     6    20.000        1.4580       6.46028E-03   1.93615E-03   3.46852E-04
     7    24.000        1.5274       1.00711E-02   3.29309E-03   6.49331E-04
     8    28.000        1.5803       1.42615E-02   5.07147E-03   1.07733E-03
     9    30.000        1.6066       1.66559E-02   6.07852E-03   1.33032E-03
    10    34.000        1.6403       2.14764E-02   8.34111E-03   1.95568E-03
    11    38.000        1.6682       2.64119E-02   1.08490E-02   2.70848E-03
    12    40.000        1.6847       2.89402E-02   1.21724E-02   3.11928E-03
    13    44.000        1.7030       3.39044E-02   1.49413E-02   4.04466E-03
    14    48.000        1.7193       3.87934E-02   1.78138E-02   5.06759E-03
    15    50.000        1.7311       4.12271E-02   1.92734E-02   5.60079E-03
    16    54.000        1.7416       4.58823E-02   2.22097E-02   6.71764E-03
    17    58.000        1.7518       5.03762E-02   2.51401E-02   7.91729E-03
    18    60.000        1.7609       5.25881E-02   2.65316E-02   8.53223E-03
    19    64.000        1.7670       5.67649E-02   2.93454E-02   9.81365E-03
    20    68.000        1.7735       6.07064E-02   3.21733E-02   1.11185E-02
    21    70.000        1.7811       6.26253E-02   3.35838E-02   1.17736E-02
    22    74.000        1.7844       6.62440E-02   3.63492E-02   1.30996E-02
    23    78.000        1.7887       6.96482E-02   3.89969E-02   1.44227E-02
    24    80.000        1.7953       7.11238E-02   4.02836E-02   1.50807E-02
    25    84.000        1.7968       7.41316E-02   4.27446E-02   1.63806E-02
    26    88.000        1.7996       7.70840E-02   4.50809E-02   1.76538E-02
    27    90.000        1.8055       7.85443E-02   4.62263E-02   1.82754E-02
    28    94.000        1.8059       8.13311E-02   4.84003E-02   1.94803E-02
    29    98.000        1.8076       8.39735E-02   5.04717E-02   2.06363E-02
    30    100.00        1.8132       8.52655E-02   5.14927E-02   2.11959E-02
