  STEP   TOTAL TIME             LOCATION OF OBSERVATION POINTS (K,I,J)
                      7   8   3     6   8   3     5   8   3     5   8   5     4   8   5     5   9   5     5  10   5     7   8   4     7   9   3     7   9   4
     1    3.5000       0.57868       2.06526E-02   7.58269E-04   5.77686E-05   3.46674E-06   1.01726E-05   1.09434E-06   6.68490E-02   2.06556E-02   4.70960E-03
     2    7.0000       0.93270       4.77110E-02   2.30203E-03   3.26014E-04   2.22730E-05   6.50285E-05   7.81049E-06   0.21853       4.77123E-02   1.86478E-02
     3    10.500        1.1629       7.52307E-02   4.47107E-03   1.02144E-03   7.79425E-05   2.26320E-04   2.99957E-05   0.38338       7.52418E-02   3.93911E-02
     4    14.000        1.3204       0.10108       7.09187E-03   2.31018E-03   1.95582E-04   5.64389E-04   8.21286E-05   0.52858       0.10112       6.34973E-02
     5    17.500        1.4328       0.12460       1.00173E-02   4.25542E-03   3.97145E-04   1.13807E-03   1.80839E-04   0.64908       0.12469       8.84724E-02
     6    21.000        1.5160       0.14570       1.31306E-02   6.82957E-03   6.97635E-04   1.98389E-03   3.42158E-04   0.74681       0.14588       0.11281    
     7    24.500        1.5793       0.16452       1.63414E-02   9.94883E-03   1.10900E-03   3.12368E-03   5.84110E-04   0.82559       0.16480       0.13572    
     8    25.000        1.5894       0.16722       1.67948E-02   1.04278E-02   1.17495E-03   3.30769E-03   6.22259E-04   0.83713       0.16752       0.13901    
     9    28.500        1.6359       0.18359       2.00284E-02   1.40391E-02   1.71125E-03   4.77868E-03   9.62058E-04   0.89868       0.18404       0.15989    
    10    32.000        1.6734       0.19816       2.31699E-02   1.81181E-02   2.35079E-03   6.50574E-03   1.39396E-03   0.94865       0.19877       0.17886    
    11    35.500        1.7040       0.21111       2.61801E-02   2.23035E-02   3.08088E-03   8.44539E-03   1.91817E-03   0.98970       0.21191       0.19603    
    12    39.000        1.7292       0.22264       2.90409E-02   2.65690E-02   3.89027E-03   1.05600E-02   2.53153E-03    1.0238       0.22365       0.21155    
    13    42.500        1.7503       0.23291       3.17630E-02   3.08657E-02   4.76772E-03   1.28133E-02   3.22857E-03    1.0524       0.23414       0.22557    
    14    46.000        1.7680       0.24207       3.44006E-02   3.51360E-02   5.70149E-03   1.51696E-02   4.00200E-03    1.0766       0.24356       0.23822    
    15    49.500        1.7832       0.25028       3.69316E-02   3.93292E-02   6.67977E-03   1.75942E-02   4.84292E-03    1.0972       0.25202       0.24965    
    16    50.000        1.7873       0.25165       3.72854E-02   3.99343E-02   6.82043E-03   1.79427E-02   4.95742E-03    1.1008       0.25342       0.25130    
