  STEP   TOTAL TIME             LOCATION OF OBSERVATION POINTS (K,I,J)
                      7   8   3     5   8   5     5   9   5     5  10   5
     1    4.0000       0.63287       9.19101E-05   1.77334E-05   2.09770E-06
     2    8.0000        1.0003       5.07042E-04   1.10533E-04   1.45819E-05
     3    10.000        1.1360       8.97468E-04   1.99095E-04   2.66179E-05
     4    14.000        1.3177       2.33365E-03   5.80770E-04   8.66398E-05
     5    18.000        1.4424       4.61467E-03   1.27107E-03   2.09316E-04
     6    20.000        1.4958       6.03954E-03   1.72531E-03   2.93688E-04
     7    24.000        1.5694       9.48064E-03   2.95856E-03   5.54688E-04
     8    28.000        1.6257       1.35061E-02   4.59004E-03   9.27722E-04
     9    30.000        1.6536       1.58135E-02   5.51806E-03   1.14920E-03
    10    34.000        1.6897       2.04934E-02   7.62111E-03   1.70162E-03
    11    38.000        1.7196       2.53149E-02   9.97046E-03   2.37227E-03
    12    40.000        1.7371       2.77912E-02   1.12142E-02   2.73956E-03
    13    44.000        1.7568       3.26765E-02   1.38347E-02   3.57337E-03
    14    48.000        1.7743       3.75056E-02   1.65695E-02   4.50155E-03
    15    50.000        1.7867       3.99131E-02   1.79624E-02   4.98676E-03
    16    54.000        1.7981       4.45507E-02   2.07833E-02   6.00974E-03
    17    58.000        1.8089       4.90481E-02   2.36133E-02   7.11862E-03
    18    60.000        1.8186       5.12479E-02   2.49460E-02   7.68791E-03
    19    64.000        1.8250       5.54139E-02   2.77019E-02   8.87904E-03
    20    68.000        1.8320       5.93621E-02   3.04736E-02   1.00992E-02
    21    70.000        1.8400       6.12866E-02   3.18570E-02   1.07131E-02
    22    74.000        1.8435       6.49311E-02   3.45704E-02   1.19613E-02
    23    78.000        1.8480       6.82114E-02   3.71628E-02   1.32112E-02
    24    80.000        1.8549       6.97857E-02   3.84299E-02   1.38341E-02
    25    84.000        1.8566       7.29183E-02   4.08544E-02   1.50691E-02
    26    88.000        1.8595       7.59610E-02   4.31754E-02   1.62805E-02
    27    90.000        1.8657       7.74603E-02   4.43164E-02   1.68709E-02
    28    94.000        1.8661       8.03132E-02   4.64884E-02   1.80222E-02
    29    98.000        1.8679       8.30142E-02   4.85605E-02   1.91299E-02
    30    100.00        1.8737       8.43136E-02   4.95817E-02   1.96711E-02
