  STEP   TOTAL TIME             LOCATION OF OBSERVATION POINTS (K,I,J)
                      1  16  16     1  16  13     1  14  14     1  13  16
     1   0.30000        1.0000       1.54357E-03   5.99100E-04   1.54357E-03
     2   0.60000        1.0000       5.57457E-03   2.93170E-03   5.57457E-03
     3   0.90000        1.0000       1.26090E-02   8.37965E-03   1.26090E-02
     4    1.2000        1.0000       2.29738E-02   1.78592E-02   2.29738E-02
     5    1.5000        1.0000       3.76870E-02   3.16132E-02   3.76870E-02
     6    1.8000        1.0000       5.59703E-02   4.93027E-02   5.59703E-02
     7    2.1000        1.0000       7.70396E-02   7.03113E-02   7.70396E-02
     8    2.4000        1.0000       0.10017       9.39130E-02   0.10017    
     9    2.7000        1.0000       0.12444       0.11939       0.12444    
    10    3.0000        1.0000       0.14937       0.14609       0.14937    
    11    3.3000        1.0000       0.17459       0.17345       0.17459    
    12    3.6000        1.0000       0.19981       0.20102       0.19981    
    13    3.9000        1.0000       0.22480       0.22845       0.22480    
    14    4.2000        1.0000       0.24939       0.25545       0.24939    
    15    4.5000        1.0000       0.27347       0.28183       0.27347    
    16    4.8000        1.0000       0.29692       0.30745       0.29692    
    17    5.1000        1.0000       0.31970       0.33221       0.31970    
    18    5.4000        1.0000       0.34175       0.35607       0.34175    
    19    5.7000        1.0000       0.36306       0.37898       0.36306    
    20    6.0000        1.0000       0.38360       0.40094       0.38360    
    21    6.3000        1.0000       0.40339       0.42195       0.40339    
    22    6.6000        1.0000       0.42242       0.44205       0.42242    
    23    6.9000        1.0000       0.44072       0.46125       0.44072    
    24    7.2000        1.0000       0.45830       0.47958       0.45830    
    25    7.5000        1.0000       0.47518       0.49708       0.47518    
    26    7.8000        1.0000       0.49139       0.51379       0.49139    
    27    8.1000        1.0000       0.50694       0.52975       0.50694    
    28    8.4000        1.0000       0.52187       0.54498       0.52187    
    29    8.7000        1.0000       0.53620       0.55954       0.53620    
    30    9.0000        1.0000       0.54996       0.57344       0.54996    
    31    9.3000        1.0000       0.56317       0.58674       0.56317    
    32    9.6000        1.0000       0.57586       0.59945       0.57586    
    33    9.9000        1.0000       0.58805       0.61162       0.58805    
    34    10.200        1.0000       0.59976       0.62327       0.59976    
    35    10.500        1.0000       0.61101       0.63443       0.61101    
    36    10.800        1.0000       0.62184       0.64512       0.62184    
    37    11.100        1.0000       0.63225       0.65537       0.63225    
    38    11.400        1.0000       0.64226       0.66520       0.64226    
    39    11.700        1.0000       0.65190       0.67464       0.65190    
    40    12.000        1.0000       0.66119       0.68371       0.66119    
    41    12.300        1.0000       0.67013       0.69242       0.67013    
    42    12.600        1.0000       0.67875       0.70079       0.67875    
    43    12.900        1.0000       0.68706       0.70884       0.68706    
    44    13.200        1.0000       0.69507       0.71659       0.69507    
    45    13.500        1.0000       0.70280       0.72405       0.70280    
    46    13.800        1.0000       0.71026       0.73123       0.71026    
    47    14.100        1.0000       0.71746       0.73815       0.71746    
    48    14.400        1.0000       0.72441       0.74483       0.72441    
    49    14.700        1.0000       0.73113       0.75126       0.73113    
    50    15.000        1.0000       0.73763       0.75747       0.73763    
    51    15.300        1.0000       0.74391       0.76347       0.74391    
    52    15.600        1.0000       0.74998       0.76925       0.74998    
    53    15.900        1.0000       0.75585       0.77485       0.75585    
    54    16.200        1.0000       0.76154       0.78025       0.76154    
    55    16.500        1.0000       0.76705       0.78548       0.76705    
    56    16.800        1.0000       0.77238       0.79053       0.77238    
    57    17.100        1.0000       0.77754       0.79542       0.77754    
    58    17.400        1.0000       0.78255       0.80015       0.78255    
    59    17.700        1.0000       0.78740       0.80473       0.78740    
    60    18.000        1.0000       0.79211       0.80917       0.79211    
    61    18.300        1.0000       0.79667       0.81347       0.79667    
    62    18.600        1.0000       0.80110       0.81763       0.80110    
    63    18.900        1.0000       0.80540       0.82167       0.80540    
    64    19.200        1.0000       0.80957       0.82559       0.80957    
    65    19.500        1.0000       0.81362       0.82939       0.81362    
    66    19.800        1.0000       0.81755       0.83308       0.81755    
    67    20.100        1.0000       0.82137       0.83665       0.82137    
    68    20.400        1.0000       0.82509       0.84013       0.82509    
    69    20.700        1.0000       0.82870       0.84350       0.82870    
    70    21.000        1.0000       0.83221       0.84678       0.83221    
    71    21.300        1.0000       0.83562       0.84997       0.83562    
    72    21.600        1.0000       0.83894       0.85306       0.83894    
    73    21.900        1.0000       0.84217       0.85607       0.84217    
    74    22.200        1.0000       0.84532       0.85900       0.84532    
    75    22.500        1.0000       0.84838       0.86184       0.84838    
    76    22.800        1.0000       0.85136       0.86461       0.85136    
    77    23.100        1.0000       0.85426       0.86731       0.85426    
    78    23.400        1.0000       0.85708       0.86993       0.85708    
    79    23.700        1.0000       0.85984       0.87248       0.85984    
    80    24.000        1.0000       0.86252       0.87497       0.86252    
    81    24.300        1.0000       0.86513       0.87739       0.86513    
    82    24.600        1.0000       0.86768       0.87975       0.86768    
    83    24.900        1.0000       0.87017       0.88205       0.87017    
    84    25.200        1.0000       0.87259       0.88429       0.87259    
    85    25.500        1.0000       0.87495       0.88648       0.87495    
    86    25.800        1.0000       0.87726       0.88861       0.87726    
    87    26.100        1.0000       0.87951       0.89068       0.87951    
    88    26.400        1.0000       0.88170       0.89271       0.88170    
    89    26.700        1.0000       0.88385       0.89468       0.88385    
    90    27.000        1.0000       0.88594       0.89661       0.88594    
    91    27.000        1.0000       0.88594       0.89661       0.88594    
