  STEP   TOTAL TIME             LOCATION OF OBSERVATION POINTS (K,I,J)
                      1  50  50
     1    14.114        0.0000    
     2    28.229       8.40779E-45
     3    42.343       6.20383E-41
     4    56.457       6.15357E-38
     5    70.572       3.24600E-35
     6    84.686       1.01646E-32
     7    98.800       2.28091E-30
     8    100.00       3.01511E-30
     9    114.11       5.85753E-28
    10    128.23       2.59576E-25
    11    142.34       2.56279E-23
    12    156.46       1.71531E-21
    13    170.57       1.24234E-19
    14    184.69       1.07225E-17
    15    198.80       8.64636E-16
    16    200.00       1.10895E-15
    17    214.11       4.82375E-13
    18    228.23       2.18172E-11
    19    242.34       8.65054E-10
    20    256.46       3.58871E-08
    21    270.57       1.77993E-06
    22    284.69       3.46208E-05
    23    298.80       2.26007E-04
    24    300.00       2.69470E-04
    25    314.11       1.27517E-03
    26    328.23       4.96878E-03
    27    342.34       1.70285E-02
    28    356.46       4.67494E-02
    29    370.57       0.11078    
    30    384.69       0.22551    
    31    398.80       0.39856    
    32    400.00       0.39943    
    33    414.11       0.60833    
    34    428.23       0.86341    
    35    442.34        1.1052    
    36    456.46        1.2893    
    37    470.57        1.4230    
    38    484.69        1.5307    
    39    498.80        1.5886    
    40    500.00        1.5691    
    41    514.11        1.6477    
    42    528.23        1.6058    
    43    542.34        1.6067    
    44    556.46        1.5990    
    45    570.57        1.5841    
    46    584.69        1.6086    
    47    598.80        1.5865    
    48    600.00        1.6209    
    49    614.11        1.6517    
    50    628.23        1.5976    
    51    642.34        1.5901    
    52    656.46        1.6093    
    53    670.57        1.6285    
    54    684.69        1.6449    
    55    698.80        1.6466    
    56    700.00        1.6176    
    57    714.11        1.6336    
    58    728.23        1.6116    
    59    742.34        1.6003    
    60    756.46        1.5980    
    61    770.57        1.5892    
    62    784.69        1.5642    
    63    798.80        1.5500    
    64    800.00        1.5522    
    65    814.11        1.5731    
    66    828.23        1.5558    
    67    842.34        1.5819    
    68    856.46        1.5894    
    69    870.57        1.5729    
    70    884.69        1.5840    
    71    898.80        1.5791    
    72    900.00        1.5605    
    73    914.11        1.5814    
    74    928.23        1.6014    
    75    942.34        1.5802    
    76    956.46        1.5586    
    77    970.57        1.5679    
    78    984.69        1.5962    
    79    998.80        1.5892    
    80    1000.0        1.5616    
